# Y filter curve @ T=87K 
# Y 3 (Iz881,SN003)
# Wavelength (nm)   T (%)
 9250.74    0.002072870   
 9270.72    0.018719386   
 9290.70    0.023062183   
 9310.68    0.011261292   
 9330.66    0.008735294   
 9350.64    0.010011826   
 9370.62    0.014116760   
 9390.60    0.033784326   
 9410.58    0.060878485   
 9430.56    0.130903244   
 9450.54    0.281996787   
 9470.52    0.563563526   
 9490.50    0.970406651   
 9510.48    1.354158759   
 9530.46    1.598969698   
 9550.44    1.765644193   
 9570.42    2.059525967   
 9590.40    2.714939117   
 9610.38    4.087045193   
 9630.36    7.208515644   
 9650.34   14.082983017   
 9670.32   28.158458710   
 9690.30   49.898704529   
 9710.28   70.498908997   
 9730.26   82.999298096   
 9750.24   89.162612915   
 9770.22   91.734085083   
 9790.20   92.684791565   
 9810.18   92.964889526   
 9830.16   92.985900879   
 9850.14   92.623786926   
 9870.12   91.866889954   
 9890.10   91.176094055   
 9910.08   90.931327820   
 9930.06   91.318420410   
 9950.04   91.992507935   
 9970.02   92.496643066   
 9990.00   92.626083374   
10009.98   92.342010498   
10029.96   91.996292114   
10049.94   91.693153381   
10069.92   91.530380249   
10089.90   91.426696777   
10109.88   91.261116028   
10129.86   91.151763916   
10149.84   91.234382629   
10169.82   91.639244080   
10189.80   92.240814209   
10209.78   92.702888489   
10229.76   92.872581482   
10249.74   92.687812805   
10269.72   92.402206421   
10289.70   92.383071899   
10309.68   92.731163025   
10329.66   93.322402954   
10349.64   93.695716858   
10369.62   93.563758850   
10389.60   92.945243835   
10409.58   92.206443787   
10429.56   91.774124146   
10449.54   91.843292236   
10469.52   92.385498047   
10489.50   92.950942993   
10509.48   93.152923584   
10529.46   92.809379578   
10549.44   91.931167603   
10569.42   90.635299683   
10589.40   88.820121765   
10609.38   85.861854553   
10629.36   81.049720764   
10649.34   73.976852417   
10669.32   64.516036987   
10689.30   53.438919067   
10709.28   42.057548523   
10729.26   31.738456726   
10749.24   23.533842087   
10769.22   17.622877121   
10789.20   13.349345207   
10809.18   10.353338242   
10829.16    8.183053017   
10849.14    6.585665226   
10869.12    5.320214748   
10889.10    4.239126205   
10909.08    3.317674637   
10929.06    2.550049305   
10949.04    1.929509282   
10969.02    1.464773774   
10989.00    1.118454576   
11008.98    0.879506111   
11028.96    0.716607809   
11048.94    0.614790142   
11068.92    0.545695126   
11088.90    0.498980016   
11108.88    0.465863109   
11128.86    0.441258162   
11148.84    0.410765350   
11168.82    0.364719689   
11188.80    0.303124368   
11208.78    0.241135895   
11228.76    0.181151271   
11248.74    0.131206378   
11268.72    0.094713844   
11288.70    0.076412499   
11308.68    0.056217484   
11328.66    0.046777688   
11348.64    0.039171029   
11368.62    0.029684274   
11388.60    0.035120353   
11408.58    0.028321112   
11428.56    0.030173086   
11448.54    0.032031018   
11468.52    0.030805916   
11488.50    0.032624584   
11508.48    0.036051620   
11528.46    0.038187336   
11548.44    0.033741277   
11568.42    0.027945727   
11588.40    0.021708863   
11608.38    0.014109416   
11628.36    0.010541240   
11648.34    0.010060491   
