#wavelength pix
5834.26 158
5860.31 196
5912.09 276
5928.81 302
5942.67 322
6032.13 458
6043.22 476
6059.37 501
6145.44 631
6296.87 863
6307.66 882
6369.57 978
6384.72 1001
6677.28 1456
6752.83 1577
6871.29 1765
6965.43 1919
7030.25 2025
7067.22 2085
7147.04 2213
7272.94 2420
7383.98 2606
